Sample	2mm tape 
date	07/01/2025
	
Temperature (K)	77.00
Angle (deg.)	0.000000
field / T	0.000000
	
		
Approx. trace time (s)	60.0	
		
Current / A	V1  -sample/ uV	time/s
-0.020043	-5.457702	0.000000
-0.019684	-5.462281	0.071000
-0.020067	-5.444838	0.117000
-0.019905	-5.424947	0.162000
-0.020336	-5.530541	0.341000
-0.020276	-5.552762	0.387000
-0.019302	-5.567297	0.432000
-0.019810	-5.570306	0.478000
-0.020162	-5.552365	0.524000
-0.019726	-5.516642	0.570000
-0.020019	-5.479160	0.616000
-0.019816	-5.453887	0.662000
-0.019989	-5.446002	0.708000
0.000610	-5.455613	0.754000
0.074122	-5.476882	0.799000
0.131084	-5.511732	0.845000
0.190259	-5.553755	0.891000
0.248785	-5.594861	0.937000
0.306326	-5.625452	0.983000
0.497354	-5.594447	1.029000
0.554042	-5.561356	1.184000
0.612223	-5.527140	1.230000
0.818265	-5.500298	1.275000
0.875491	-5.486600	1.441000
0.932514	-5.505247	1.487000
0.990670	-5.529791	1.533000
1.048087	-5.557632	1.578000
1.106460	-5.587272	1.624000
1.163230	-5.614128	1.670000
1.220366	-5.636647	1.716000
1.276005	-5.652814	1.762000
1.333637	-5.664347	1.808000
1.390401	-5.672708	1.854000
1.448973	-5.676915	1.900000
1.507010	-5.676814	1.945000
1.564659	-5.673862	1.991000
1.622286	-5.666165	2.037000
1.678457	-5.652804	2.083000
2.192842	-5.385998	2.129000
2.249921	-5.313933	2.541000
2.308033	-5.289441	2.587000
2.365855	-5.272875	2.632000
2.423067	-5.265209	2.678000
2.479815	-5.261277	2.724000
2.535939	-5.255112	2.769000
2.592644	-5.242650	2.815000
2.650676	-5.222405	2.861000
2.708242	-5.195327	2.907000
2.766961	-5.159033	2.953000
2.824240	-5.115874	2.998000
2.882035	-5.069490	3.044000
2.938229	-5.027794	3.090000
2.994229	-4.995589	3.136000
3.052051	-4.977261	3.182000
3.248501	-5.015296	3.228000
3.306127	-5.052662	3.384000
3.364212	-5.099836	3.430000
3.832817	-5.155908	3.476000
3.890412	-5.594407	3.853000
3.948932	-5.616421	3.899000
4.006241	-5.628471	3.945000
4.064741	-5.631443	3.991000
4.121333	-5.623032	4.036000
4.177138	-5.605680	4.082000
4.234490	-5.588525	4.128000
4.292623	-5.550090	4.174000
4.350122	-5.511732	4.220000
4.408460	-5.475887	4.266000
4.607812	-5.393876	4.311000
4.665546	-5.382601	4.471000
4.723169	-5.376489	4.516000
4.945974	-5.372910	4.562000
5.003535	-5.257864	4.741000
5.059556	-5.188531	4.787000
5.116405	-5.115111	4.833000
5.173261	-5.049169	4.879000
5.231373	-5.002028	4.924000
5.289180	-4.984792	4.970000
5.347226	-4.999332	5.016000
5.404069	-5.040063	5.062000
5.461320	-5.097274	5.108000
5.517650	-5.152517	5.154000
5.574378	-5.189313	5.200000
5.632309	-5.188149	5.245000
5.689999	-5.168176	5.291000
5.747965	-5.168004	5.337000
5.805902	-5.189877	5.383000
5.998583	-5.254362	5.428000
6.055222	-5.250151	5.584000
6.112518	-5.216075	5.630000
6.320236	-5.139318	5.675000
6.376878	-4.750003	5.841000
6.433953	-4.671411	5.887000
6.491229	-4.603376	5.932000
6.549902	-4.545879	5.978000
6.608071	-4.518180	6.024000
6.665190	-4.530570	6.070000
6.721463	-4.546862	6.115000
6.778001	-4.545999	6.161000
6.834939	-4.525856	6.207000
6.892713	-4.493650	6.253000
6.950669	-4.463388	6.298000
7.008507	-4.451496	6.345000
7.065877	-4.451956	6.390000
7.122632	-4.457103	6.436000
7.177827	-4.460348	6.482000
7.371943	-4.409811	6.527000
7.430189	-4.385742	6.683000
7.487942	-4.364455	6.729000
7.694471	-4.348786	6.774000
7.751677	-4.328872	6.941000
7.809854	-4.302715	6.987000
7.867987	-4.272552	7.033000
7.925590	-4.245473	7.078000
7.981755	-4.213262	7.124000
8.038227	-4.170490	7.170000
8.095093	-4.116389	7.216000
8.152445	-4.055423	7.261000
8.209884	-3.998673	7.307000
8.268010	-3.953659	7.353000
8.325428	-3.919616	7.398000
8.381915	-3.899890	7.444000
8.438410	-3.895373	7.490000
8.495433	-3.908110	7.536000
8.552635	-3.933818	7.582000
9.069739	-4.172296	7.627000
9.127904	-4.208359	8.041000
9.184978	-4.226034	8.087000
9.241496	-4.241390	8.133000
9.297203	-4.252749	8.178000
9.354458	-4.257668	8.224000
9.412570	-4.261993	8.270000
9.470516	-4.264946	8.316000
9.528297	-4.266458	8.362000
9.585630	-4.267936	8.407000
9.642081	-4.266414	8.453000
9.698220	-4.274220	8.498000
9.754346	-4.318413	8.544000
9.812226	-4.394157	8.590000
9.870128	-4.488487	8.636000
9.928551	-4.583647	8.682000
10.122223	-4.769966	8.727000
10.178667	-4.781890	8.883000
10.234889	-4.777949	8.929000
10.709189	-4.738038	8.975000
10.767253	-4.041220	9.353000
10.824868	-4.111796	9.399000
10.881691	-4.225610	9.445000
10.937552	-4.369161	9.491000
10.994644	-4.466097	9.536000
11.052266	-4.470605	9.583000
11.109779	-4.447564	9.628000
11.167796	-4.442608	9.674000
11.226246	-4.450829	9.720000
11.283411	-4.448902	9.766000
11.481139	-4.194016	9.812000
11.536835	-4.093652	9.971000
11.594108	-4.006041	10.017000
11.817512	-3.919973	10.063000
11.874206	-3.674513	10.241000
11.931958	-3.706820	10.286000
11.989208	-3.708597	10.333000
12.047811	-3.636204	10.378000
12.105531	-3.589509	10.424000
12.162913	-3.616546	10.470000
12.218559	-3.701955	10.516000
12.275138	-3.795815	10.561000
12.332768	-3.878368	10.607000
12.389959	-3.951645	10.653000
12.448232	-4.007218	10.699000
12.505881	-4.044189	10.744000
12.563619	-4.058453	10.790000
12.619593	-4.034023	10.836000
12.675837	-3.971676	10.882000
12.870751	-3.769028	10.928000
12.928273	-3.684688	11.083000
12.986580	-3.582644	11.129000
13.192831	-3.496161	11.175000
13.250277	-3.404520	11.341000
13.308631	-3.430536	11.386000
13.366030	-3.483596	11.433000
13.423774	-3.546405	11.478000
13.479260	-3.605467	11.524000
13.535623	-3.656203	11.570000
13.592488	-3.708380	11.616000
13.650454	-3.770801	11.661000
13.708083	-3.843543	11.707000
13.766174	-3.911264	11.753000
13.823556	-3.950106	11.799000
13.879594	-3.945097	11.844000
13.935492	-3.910242	11.890000
13.992947	-3.866005	11.936000
14.050769	-3.806606	11.982000
14.247536	-3.467856	12.027000
14.304379	-3.372664	12.183000
14.360755	-3.299846	12.229000
14.568738	-3.253508	12.275000
14.626691	-3.162415	12.441000
14.684154	-3.111818	12.487000
14.740625	-3.052365	12.533000
14.796333	-3.005590	12.578000
14.853988	-2.967952	12.624000
14.911238	-2.932160	12.670000
14.969382	-2.894743	12.716000
15.026373	-2.854594	12.762000
15.084069	-2.830104	12.808000
15.140727	-2.839644	12.853000
15.196871	-2.855770	12.899000
15.253118	-2.888889	12.945000
15.310962	-2.864480	12.991000
15.368496	-2.726405	13.036000
15.426794	-2.549201	13.082000
15.944072	-1.663904	13.128000
16.000665	-1.752191	13.541000
16.056541	-1.765250	13.587000
16.114155	-1.734405	13.633000
16.171408	-1.600855	13.679000
16.228854	-1.419917	13.724000
16.286602	-1.199460	13.770000
16.344405	-0.975912	13.816000
16.402167	-0.817494	13.862000
16.458664	-0.775492	13.908000
16.514628	-0.806225	13.954000
16.572197	-0.877634	13.999000
16.629411	-0.990438	14.045000
16.687510	-1.109667	14.091000
16.745355	-1.245721	14.136000
16.802345	-1.241347	14.182000
16.996087	-0.960876	14.228000
17.053142	-0.983482	14.384000
17.110636	-1.060367	14.430000
17.583741	-1.163152	14.476000
17.641342	-1.306598	14.853000
17.696841	-1.282299	14.899000
17.753695	-1.287314	14.945000
17.811623	-1.333409	14.991000
17.869250	-1.402418	15.037000
17.927575	-1.476808	15.083000
17.985837	-1.540413	15.129000
18.043405	-1.595030	15.175000
18.099447	-1.660512	15.220000
18.155705	-1.737989	15.266000
18.354401	-1.942316	15.312000
18.411368	-1.982270	15.471000
18.469296	-1.994938	15.517000
18.691591	-1.986080	15.563000
18.749319	-1.843789	15.741000
18.807575	-1.771751	15.787000
18.865831	-1.688796	15.833000
18.922856	-1.605910	15.879000
18.979302	-1.546779	15.925000
19.035901	-1.547702	15.970000
19.092927	-1.578641	16.016000
19.150551	-1.607749	16.062000
19.208504	-1.637156	16.108000
19.266531	-1.670581	16.153000
19.323727	-1.713228	16.199000
19.379693	-1.692071	16.245000
19.435801	-1.619130	16.291000
19.492855	-1.524536	16.336000
19.550062	-1.502601	16.382000
19.746367	-1.728010	16.428000
19.803338	-1.852213	16.583000
19.860508	-1.969475	16.629000
20.068177	-2.058508	16.675000
20.126033	-1.813399	16.841000
20.183369	-1.646289	16.887000
20.240369	-1.519660	16.933000
20.296089	-1.488711	16.979000
20.353450	-1.504584	17.024000
20.410699	-1.428290	17.070000
20.468569	-1.321343	17.116000
20.526746	-1.201989	17.161000
20.584182	-1.112211	17.208000
20.640819	-1.069189	17.253000
20.697250	-1.069310	17.299000
20.753827	-1.102207	17.345000
20.811382	-1.156969	17.391000
20.869407	-1.226362	17.436000
20.927856	-1.297883	17.482000
21.123017	-1.447106	17.528000
21.179798	-1.439778	17.685000
21.235618	-1.408616	17.730000
21.443763	-1.363771	17.776000
21.500021	-1.168540	17.941000
21.555922	-1.158589	17.987000
21.613487	-1.239138	18.033000
21.671695	-1.322609	18.079000
21.729349	-1.381882	18.125000
21.787144	-1.427033	18.170000
21.844427	-1.468142	18.216000
21.902033	-1.505926	18.262000
21.957654	-1.545663	18.307000
22.014736	-1.577970	18.354000
22.072310	-1.569011	18.399000
22.130084	-1.515270	18.445000
22.187301	-1.432954	18.491000
22.245101	-1.343344	18.537000
22.302645	-1.276948	18.583000
22.817035	-1.280612	18.628000
22.873814	-1.153326	19.041000
22.931666	-1.085885	19.087000
22.989117	-1.017727	19.133000
23.047243	-0.952547	19.179000
23.104661	-0.894387	19.225000
23.162214	-0.841786	19.271000
23.218588	-0.800853	19.316000
23.274725	-0.767211	19.362000
23.331857	-0.739708	19.408000
23.389710	-0.722256	19.454000
23.447797	-0.731522	19.500000
23.506289	-0.775492	19.545000
23.563208	-0.848507	19.591000
23.619326	-0.944798	19.637000
23.674806	-1.053362	19.682000
23.871063	-1.402459	19.728000
23.929150	-1.480246	19.885000
23.987316	-1.536457	19.931000
24.457493	-1.566463	19.976000
24.514418	-1.766575	20.353000
24.571854	-1.861186	20.400000
24.629247	-1.941039	20.446000
24.687782	-1.990673	20.492000
24.745486	-2.006748	20.537000
24.803081	-1.986039	20.583000
24.858877	-1.930202	20.629000
24.915321	-1.844955	20.675000
24.972567	-1.730011	20.720000
25.030101	-1.572670	20.766000
25.229212	-0.929440	20.812000
25.287199	-0.831077	20.971000
25.346265	-0.800202	21.017000
25.567856	-0.814203	21.063000
25.625764	-1.010797	21.241000
25.683050	-1.065731	21.287000
25.739443	-1.110172	21.333000
25.795980	-1.141253	21.379000
25.852922	-1.160110	21.425000
25.910200	-1.175596	21.470000
25.968694	-1.207861	21.516000
26.025809	-1.260105	21.562000
26.083806	-1.293952	21.607000
26.139544	-1.285540	21.653000
26.195141	-1.252671	21.699000
26.252919	-1.216243	21.744000
26.310355	-1.190096	21.791000
26.368551	-1.172674	21.837000
26.426409	-1.155001	21.882000
26.620305	-0.934827	21.928000
26.676322	-0.893091	22.084000
26.733006	-0.881570	22.129000
26.943727	-0.893968	22.175000
26.999424	-1.104464	22.341000
27.055980	-1.103339	22.387000
27.112838	-1.031576	22.433000
27.170846	-0.910218	22.479000
27.228666	-0.771091	22.525000
27.287412	-0.634551	22.570000
27.344602	-0.522826	22.616000
27.401945	-0.448011	22.662000
27.457170	-0.412883	22.708000
27.514519	-0.409789	22.754000
27.571884	-0.430688	22.800000
27.629118	-0.463186	22.846000
27.687046	-0.497700	22.891000
27.745119	-0.527152	22.937000
27.801967	-0.545462	22.983000
27.995010	-0.590887	23.029000
28.052588	-0.599129	23.185000
28.110654	-0.591669	23.231000
28.317429	-0.517129	23.276000
28.374083	-0.325810	23.441000
28.431695	-0.352773	23.487000
28.489156	-0.390249	23.533000
28.547322	-0.440567	23.579000
28.604571	-0.494988	23.625000
28.661671	-0.543413	23.670000
28.717624	-0.566555	23.716000
28.774623	-0.549616	23.762000
28.831610	-0.494907	23.808000
28.889130	-0.427604	23.853000
28.947572	-0.365467	23.899000
29.004610	-0.288289	23.945000
29.062008	-0.192857	23.991000
29.117682	-0.089949	24.036000
29.174413	-0.002668	24.082000
29.691897	0.480966	24.128000
29.749740	0.594143	24.541000
29.807639	0.661031	24.587000
29.865336	0.723068	24.633000
29.922601	0.777549	24.679000
29.979533	0.830457	24.725000
30.035173	0.880988	24.770000
30.092734	0.932407	24.816000
30.149901	0.994186	24.862000
30.208066	1.058327	24.908000
30.265621	1.119895	24.953000
30.323111	1.174972	24.999000
30.378952	1.222514	25.045000
30.435199	1.254141	25.091000
30.493040	1.269286	25.137000
30.550768	1.268908	25.183000
30.747059	1.176158	25.229000
30.804765	1.153531	25.384000
30.861611	1.155196	25.431000
31.331403	1.160183	25.476000
31.389415	0.656266	25.854000
31.447118	0.684391	25.900000
31.505285	0.794875	25.946000
31.562754	0.946407	25.991000
31.619751	1.095889	26.038000
31.675716	1.219571	26.084000
31.732827	1.311355	26.129000
31.789663	1.378307	26.175000
31.848052	1.428777	26.221000
31.906656	1.467258	26.266000
32.105880	1.524994	26.312000
32.162784	1.517342	26.472000
32.219416	1.503502	26.517000
32.443650	1.497157	26.563000
32.499824	1.384698	26.742000
32.555917	1.328188	26.787000
32.612775	1.265446	26.833000
32.670097	1.194964	26.879000
32.728061	1.124811	26.925000
32.786190	1.050988	26.970000
32.843774	0.922588	27.016000
32.899986	0.802943	27.061000
32.955637	0.870344	27.107000
33.013321	1.111431	27.153000
33.070121	1.460610	27.199000
33.128661	1.701685	27.245000
33.185661	1.890578	27.290000
33.243333	2.054658	27.336000
33.299219	2.088753	27.382000
33.494471	1.447866	27.427000
33.551470	1.184919	27.584000
33.609058	0.999313	27.630000
33.816630	0.937820	27.675000
33.873791	1.022986	27.842000
33.931459	1.203691	27.887000
33.988878	1.426839	27.933000
34.047276	1.611995	27.979000
34.104153	1.686662	28.024000
34.160615	1.641298	28.070000
34.216354	1.482586	28.116000
34.272962	1.271097	28.162000
34.331130	1.061623	28.207000
34.388998	0.870596	28.253000
34.446681	0.720216	28.299000
34.504196	0.618597	28.345000
34.561691	0.557645	28.391000
34.617212	0.521358	28.437000
34.673808	0.505829	28.482000
34.869344	0.656704	28.528000
34.927754	0.717056	28.684000
34.985349	0.751595	28.730000
35.191961	0.769680	28.775000
35.250106	0.909030	28.942000
35.307789	1.010629	28.988000
35.366164	1.137494	29.034000
35.422884	1.261480	29.080000
35.479418	1.368399	29.126000
35.535054	1.448880	29.171000
35.592315	1.501494	29.217000
35.650179	1.529849	29.263000
35.708393	1.547076	29.308000
35.765808	1.561623	29.354000
35.823092	1.578340	29.400000
35.879880	1.597630	29.446000
35.936008	1.622165	29.492000
35.993127	1.655675	29.537000
36.050641	1.700541	29.583000
36.567745	2.459414	29.629000
36.626170	2.649664	30.041000
36.683013	2.749196	30.088000
36.738860	2.836738	30.133000
36.795445	2.905216	30.179000
36.852633	2.954493	30.225000
36.910627	2.984306	30.271000
36.968868	2.999460	30.316000
37.026436	3.002223	30.362000
37.083736	3.000877	30.408000
37.139698	2.993962	30.454000
37.195326	2.978282	30.500000
37.252937	2.950451	30.545000
37.309910	2.903878	30.591000
37.368262	2.841135	30.637000
37.425791	2.763641	30.682000
37.619641	2.425562	30.728000
37.675754	2.320515	30.884000
37.733057	2.216141	30.930000
38.207199	2.114563	30.976000
38.265271	1.423254	31.354000
38.322843	1.371090	31.400000
38.379719	1.335074	31.446000
38.436108	1.320477	31.492000
38.493339	1.326652	31.538000
38.551372	1.345113	31.583000
38.609024	1.354649	31.629000
38.667357	1.333789	31.675000
38.724376	1.278292	31.721000
38.781038	1.199931	31.766000
38.979778	1.183794	31.812000
39.035468	1.316567	31.971000
39.092725	1.376206	32.017000
39.315361	1.343234	32.063000
39.373313	1.476555	32.242000
39.430520	1.543009	32.288000
39.488865	1.594336	32.334000
39.547359	1.626371	32.379000
39.604904	1.638461	32.425000
39.661416	1.654087	32.471000
39.717536	1.699175	32.517000
39.774259	1.769590	32.563000
39.832331	1.846910	32.609000
39.889461	1.949506	32.654000
39.947982	2.085614	32.700000
40.005635	2.226912	32.746000
40.062658	2.357195	32.792000
40.118816	2.490945	32.838000
40.175781	2.636333	32.884000
40.370388	3.047602	32.930000
40.429162	3.084919	33.085000
40.486926	3.084878	33.131000
40.690680	3.051805	33.177000
40.748975	2.852440	33.342000
40.806942	2.822554	33.388000
40.864611	2.805888	33.433000
40.922171	2.794430	33.479000
40.978226	2.789605	33.525000
41.034741	2.790559	33.571000
41.092452	2.797257	33.617000
41.148833	2.807488	33.663000
41.206832	2.821459	33.709000
41.265007	2.843204	33.754000
41.321934	2.870984	33.800000
41.378011	2.902439	33.845000
41.434420	2.934079	33.892000
41.492410	2.964211	33.937000
41.549591	2.993373	33.983000
41.746472	3.057677	34.029000
41.803975	3.057481	34.185000
41.861020	3.052240	34.231000
42.066902	3.043818	34.277000
42.124148	3.056624	34.442000
42.181978	3.086517	34.488000
42.238240	3.128792	34.533000
42.294713	3.183231	34.579000
42.351936	3.251749	34.625000
42.409734	3.327743	34.671000
42.467837	3.411573	34.717000
42.525893	3.494446	34.763000
42.582781	3.572063	34.809000
42.639370	3.644422	34.854000
42.695482	3.711179	34.900000
42.752908	3.763732	34.946000
42.810023	3.789523	34.992000
42.868222	3.752421	35.037000
42.926397	3.656971	35.083000
43.442514	3.093634	35.129000
43.498907	3.380249	35.542000
43.554854	3.511048	35.587000
43.612211	3.612033	35.633000
43.669560	3.704133	35.679000
43.727643	3.795173	35.725000
43.785246	3.878063	35.771000
43.842910	3.938204	35.817000
43.898469	3.976969	35.862000
43.954962	4.003288	35.908000
44.012215	4.032255	35.953000
44.069910	4.064008	35.999000
44.128039	4.091268	36.045000
44.186188	4.099551	36.091000
44.243161	4.075727	36.137000
44.299292	4.022473	36.182000
44.493376	3.831376	36.228000
44.550883	3.789353	36.384000
44.608885	3.759153	36.430000
45.081852	3.769704	36.476000
45.138445	4.142051	36.854000
45.195398	4.190162	36.900000
45.252479	4.223972	36.946000
45.309640	4.248766	36.992000
45.367681	4.275558	37.038000
45.425495	4.294569	37.083000
45.482579	4.272333	37.129000
45.538856	4.199837	37.175000
45.594884	4.096407	37.220000
45.652552	3.940232	37.266000
45.851731	3.811412	37.312000
45.910286	3.955129	37.472000
45.968077	4.124238	37.518000
46.189956	4.262712	37.564000
46.248185	4.514059	37.742000
46.306518	4.568632	37.788000
46.363710	4.589881	37.834000
46.420641	4.580129	37.879000
46.477248	4.557300	37.926000
46.533906	4.537317	37.971000
46.591693	4.523316	38.017000
46.649208	4.514983	38.063000
46.707122	4.502268	38.109000
46.764786	4.486284	38.154000
46.821314	4.489353	38.200000
46.877449	4.526591	38.246000
46.934429	4.578580	38.292000
46.991348	4.624005	38.337000
47.049140	4.653533	38.383000
47.244349	4.643428	38.429000
47.301603	4.633596	38.584000
47.358134	4.639042	38.630000
47.566348	4.668540	38.676000
47.623728	4.803420	38.842000
47.680685	4.802085	38.888000
47.736866	4.790754	38.934000
47.793970	4.774903	38.980000
47.851665	4.759759	39.026000
47.909667	4.743148	39.071000
47.967305	4.726385	39.117000
48.025246	4.705396	39.163000
48.082246	4.673614	39.208000
48.137689	4.631203	39.254000
48.194220	4.576975	39.300000
48.251746	4.514009	39.346000
48.309342	4.446521	39.391000
48.367905	4.377277	39.437000
48.425673	4.307689	39.483000
48.620149	4.102227	39.529000
48.676234	4.053333	39.685000
48.733737	4.011023	39.731000
48.941782	3.973233	39.777000
48.997871	3.797899	39.942000
49.054183	3.743002	39.988000
49.111414	3.702917	40.033000
49.168824	3.687284	40.079000
49.227057	3.684800	40.125000
49.284080	3.657368	40.171000
49.341656	3.638036	40.216000
49.397215	3.694735	40.262000
49.454130	3.691489	40.308000
49.511553	3.609192	40.354000
49.569010	3.502807	40.399000
49.627108	3.440805	40.445000
49.684922	3.472642	40.491000
49.741987	3.592485	40.537000
49.798472	3.715000	40.582000
50.313779	4.383168	40.628000
50.371839	4.370130	41.042000
50.429146	4.326598	41.088000
50.487601	4.307155	41.134000
50.545604	4.334587	41.180000
50.603187	4.392442	41.226000
50.660106	4.460845	41.271000
50.716392	4.504054	41.317000
50.772880	4.518581	41.363000
50.830687	4.508921	41.409000
50.888520	4.465796	41.454000
50.946434	4.403776	41.500000
51.003768	4.333372	41.546000
51.060318	4.261884	41.592000
51.116523	4.197899	41.638000
51.173039	4.143095	41.683000
51.368367	4.275608	41.729000
51.426312	4.440564	41.884000
51.483834	4.643023	41.930000
51.954077	4.779429	41.976000
52.011757	6.171392	42.354000
52.069898	6.163561	42.400000
52.128042	6.191152	42.446000
52.185906	6.224293	42.492000
52.243486	6.230476	42.538000
52.299940	6.189446	42.584000
52.355853	6.088227	42.629000
52.412749	5.974482	42.675000
52.470140	5.907004	42.721000
52.528055	5.882226	42.766000
52.728474	6.017985	42.812000
52.786207	6.147030	42.972000
52.843902	6.272183	43.018000
