Sample	2mm tape 
date	07/01/2025
	
Temperature (K)	77.00
Angle (deg.)	45.000000
field / T	0.100000
	
		
Approx. trace time (s)	60.0	
		
Current / A	V1  -sample/ uV	time/s
-0.019809	-6.871762	0.000000
-0.019845	-7.008073	0.046000
-0.019021	-7.116475	0.092000
-0.019355	-7.177670	0.138000
-0.019702	-7.182264	0.184000
-0.019672	-7.138116	0.229000
-0.019182	-7.076167	0.275000
-0.019540	-7.006423	0.321000
-0.019594	-6.932958	0.367000
-0.019672	-6.733846	0.412000
-0.019719	-6.724684	0.590000
-0.018931	-6.736177	0.636000
0.212620	-6.761714	0.681000
0.252495	-6.526878	1.060000
0.291067	-6.492029	1.106000
0.328518	-6.485386	1.152000
0.366580	-6.507456	1.197000
0.404070	-6.533712	1.243000
0.441472	-6.556838	1.289000
0.480884	-6.605032	1.335000
0.518892	-6.652494	1.381000
0.557327	-6.627639	1.427000
0.595662	-6.594732	1.472000
0.736542	-6.608620	1.518000
0.775397	-6.628512	1.690000
0.812215	-6.654563	1.736000
0.953308	-6.674890	1.781000
0.990588	-6.622450	1.948000
1.028100	-6.594418	1.994000
1.067102	-6.586409	2.039000
1.105676	-6.632160	2.085000
1.144680	-6.711108	2.131000
1.181832	-6.779079	2.177000
1.219537	-6.824145	2.223000
1.257336	-6.851138	2.268000
1.293702	-6.896203	2.314000
1.333110	-6.985741	2.360000
1.371888	-7.087728	2.406000
1.411238	-7.106734	2.451000
1.448689	-7.051494	2.497000
1.487183	-7.039712	2.543000
1.523680	-7.073927	2.589000
1.654500	-6.914039	2.634000
1.693057	-6.830188	2.791000
1.731851	-6.743455	2.837000
1.868531	-6.658810	2.883000
1.906859	-6.515157	3.048000
1.946146	-6.480115	3.094000
1.983971	-6.425654	3.140000
2.022993	-6.364698	3.185000
2.061141	-6.281434	3.231000
2.097990	-6.191802	3.277000
2.136028	-6.123913	3.323000
2.174123	-6.081253	3.369000
2.212674	-6.056990	3.414000
2.251471	-6.041023	3.460000
2.290297	-6.019553	3.506000
2.327861	-5.982629	3.552000
2.365886	-5.943836	3.598000
2.402862	-5.900776	3.643000
2.441232	-5.850840	3.689000
2.571682	-5.785514	3.735000
2.609886	-5.778509	3.891000
2.649396	-5.762898	3.937000
2.786743	-5.742907	3.982000
2.825023	-5.579747	4.148000
2.863669	-5.547811	4.194000
2.902113	-5.523341	4.239000
2.939490	-5.517935	4.285000
2.977305	-5.529697	4.331000
3.015550	-5.553824	4.377000
3.054179	-5.581305	4.423000
3.091504	-5.605425	4.469000
3.130460	-5.601136	4.515000
3.168754	-5.536229	4.560000
3.205787	-5.410066	4.606000
3.243743	-5.273007	4.651000
3.281523	-5.197249	4.698000
3.320056	-5.172544	4.743000
3.358969	-5.154250	4.789000
3.703576	-5.362226	4.835000
3.741601	-5.376672	5.248000
3.779109	-5.400000	5.294000
3.816579	-5.422473	5.339000
3.854543	-5.435207	5.385000
3.892538	-5.454901	5.431000
3.932458	-5.446680	5.477000
3.969868	-5.394791	5.522000
4.008094	-5.331948	5.568000
4.045668	-5.264807	5.614000
4.083108	-5.216900	5.660000
4.121729	-5.201190	5.705000
4.159752	-5.207960	5.751000
4.199358	-5.244796	5.797000
4.238413	-5.298310	5.843000
4.276428	-5.320804	5.889000
4.404584	-5.400231	5.935000
4.442339	-5.501844	6.090000
4.481051	-5.605557	6.136000
4.798579	-5.688797	6.182000
4.836580	-5.224256	6.560000
4.874555	-5.184778	6.606000
4.911750	-5.117373	6.652000
4.949688	-5.063715	6.698000
4.988257	-5.027316	6.744000
5.026160	-4.999804	6.789000
5.064940	-4.983970	6.835000
5.103072	-4.979741	6.881000
5.140672	-5.003463	6.927000
5.178148	-5.055817	6.972000
5.321387	-5.320784	7.018000
5.360458	-5.335058	7.190000
5.398785	-5.290779	7.236000
5.536268	-5.218184	7.282000
5.574879	-5.453806	7.448000
5.613691	-5.600043	7.494000
5.652968	-5.730538	7.540000
5.691478	-5.826610	7.585000
5.728608	-5.851588	7.631000
5.766287	-5.822193	7.677000
5.804357	-5.762727	7.723000
5.842319	-5.676255	7.769000
5.880952	-5.563630	7.814000
5.920070	-5.448789	7.860000
5.957886	-5.353973	7.906000
5.996435	-5.280347	7.952000
6.033898	-5.228785	7.998000
6.071898	-5.190249	8.044000
6.110309	-5.163502	8.089000
6.240569	-5.009556	8.135000
6.279336	-4.946208	8.291000
6.317096	-4.916819	8.337000
6.453949	-4.935736	8.383000
6.492904	-5.111340	8.548000
6.531348	-5.092896	8.594000
6.569496	-5.036643	8.640000
6.607269	-4.954420	8.685000
6.644587	-4.856724	8.731000
6.682899	-4.746721	8.777000
6.721536	-4.623259	8.823000
6.760300	-4.497203	8.868000
6.798473	-4.377913	8.914000
6.836585	-4.272329	8.960000
6.874639	-4.174820	9.006000
6.911690	-4.087279	9.052000
6.950092	-4.015312	9.097000
6.988490	-3.960447	9.143000
7.026920	-3.925059	9.189000
7.157272	-3.865195	9.235000
7.195494	-3.852380	9.391000
7.232456	-3.839461	9.437000
7.371838	-3.824620	9.483000
7.410249	-3.758512	9.648000
7.447821	-3.767549	9.694000
7.485634	-3.787653	9.740000
7.523418	-3.802057	9.786000
7.561712	-3.842133	9.832000
7.599971	-3.904773	9.878000
7.639238	-3.950721	9.923000
7.677261	-3.964288	9.969000
7.714881	-3.929695	10.015000
7.752904	-3.854269	10.061000
7.790109	-3.807354	10.107000
7.828569	-3.778596	10.153000
7.867538	-3.734260	10.199000
7.906236	-3.676733	10.244000
7.944625	-3.636204	10.290000
8.287421	-3.890359	10.336000
8.324513	-3.777412	10.748000
8.362975	-3.724802	10.794000
8.401233	-3.706445	10.840000
8.440707	-3.712497	10.886000
8.479253	-3.742815	10.932000
8.517560	-3.797229	10.978000
8.554711	-3.839120	11.023000
8.592453	-3.849749	11.069000
8.630675	-3.829604	11.115000
8.668394	-3.789275	11.161000
8.707504	-3.743506	11.206000
8.746244	-3.720360	11.252000
8.783861	-3.726871	11.298000
8.822216	-3.728046	11.344000
8.859688	-3.714858	11.389000
8.989417	-3.792563	11.435000
9.027625	-3.824705	11.591000
9.066164	-3.834413	11.637000
9.380957	-3.812354	11.683000
9.418648	-4.004048	12.061000
9.456951	-4.083680	12.107000
9.494450	-4.127949	12.152000
9.533149	-4.135287	12.198000
9.572318	-4.117718	12.244000
9.610148	-4.080769	12.290000
9.648136	-4.030317	12.336000
9.685032	-3.974032	12.381000
9.723086	-3.932896	12.427000
9.761412	-3.950535	12.473000
9.905610	-4.091393	12.518000
9.944296	-4.086690	12.690000
9.982165	-4.078275	12.736000
10.119615	-4.041607	12.782000
10.158485	-3.806886	12.948000
10.196115	-3.742250	12.994000
10.234295	-3.675739	13.040000
10.271601	-3.606603	13.086000
10.309796	-3.531674	13.131000
10.347972	-3.455825	13.177000
10.386479	-3.382940	13.223000
10.425293	-3.323743	13.269000
10.463878	-3.285947	13.315000
10.501933	-3.253525	13.360000
10.539122	-3.219992	13.406000
10.577546	-3.184490	13.452000
10.615500	-3.161369	13.498000
10.653158	-3.153460	13.544000
10.692742	-3.156958	13.590000
10.822613	-3.272653	13.635000
10.860496	-3.301618	13.791000
10.897772	-3.343221	13.837000
11.036488	-3.467315	13.883000
11.075098	-4.058212	14.048000
11.112578	-4.180832	14.094000
11.150506	-4.281719	14.140000
11.188023	-4.345380	14.186000
11.226488	-4.371417	14.232000
11.265296	-4.365766	14.277000
11.303539	-4.330064	14.323000
11.342153	-4.244498	14.369000
11.378813	-4.155511	14.415000
11.416240	-4.056399	14.460000
11.454438	-3.904723	14.506000
11.492712	-3.785415	14.552000
11.531280	-3.712628	14.598000
11.570198	-3.704780	14.643000
11.608389	-3.716317	14.689000
11.737561	-3.680039	14.735000
11.775925	-3.618938	14.892000
11.814349	-3.578814	14.937000
11.952054	-3.622184	14.983000
11.989766	-3.604999	15.148000
12.028424	-3.575594	15.194000
12.066732	-3.562769	15.240000
12.105552	-3.534558	15.286000
12.144365	-3.491578	15.332000
12.182521	-3.450224	15.378000
12.219961	-3.406576	15.423000
12.257458	-3.336598	15.469000
12.295175	-3.210433	15.515000
12.333232	-3.072651	15.560000
12.372380	-2.969818	15.606000
12.411007	-2.913060	15.652000
12.449605	-2.873352	15.698000
12.487491	-2.831860	15.744000
12.524614	-2.811797	15.790000
12.868921	-2.704970	15.835000
12.906342	-2.689440	16.248000
12.945283	-2.725022	16.294000
12.984435	-2.770420	16.340000
13.022197	-2.833339	16.386000
13.059648	-2.930377	16.432000
13.097529	-3.027962	16.478000
13.135888	-3.111341	16.523000
13.174515	-3.187664	16.569000
13.213093	-3.230989	16.615000
13.251225	-3.217448	16.661000
13.289872	-3.199231	16.706000
13.327829	-3.210372	16.752000
13.364631	-3.231973	16.798000
13.403050	-3.256830	16.843000
13.441256	-3.288021	16.890000
13.572079	-3.179169	16.935000
13.610513	-3.113507	17.092000
13.648267	-3.061068	17.137000
13.961776	-3.035013	17.183000
14.000162	-3.107934	17.561000
14.039264	-3.076883	17.607000
14.077814	-3.035823	17.653000
14.116497	-2.978753	17.699000
14.154282	-2.917746	17.744000
14.191500	-2.864907	17.790000
14.229277	-2.825767	17.836000
14.268011	-2.816991	17.882000
14.306036	-2.820281	17.928000
14.344610	-2.818964	17.974000
14.488596	-3.064018	18.019000
14.525570	-3.128300	18.190000
14.563363	-3.153228	18.236000
14.702915	-3.151087	18.282000
14.741354	-2.968195	18.448000
14.778547	-2.905414	18.495000
14.816632	-2.842898	18.541000
14.854470	-2.779774	18.586000
14.892740	-2.723523	18.632000
14.931739	-2.704031	18.678000
14.970764	-2.731391	18.724000
15.008216	-2.790196	18.769000
15.045761	-2.836887	18.815000
15.083451	-2.874386	18.861000
15.121364	-2.917147	18.907000
15.159862	-2.961780	18.953000
15.198758	-2.986560	18.999000
15.236959	-2.979958	19.044000
15.275145	-2.955470	19.090000
15.404435	-2.832112	19.136000
15.442700	-2.841858	19.292000
15.480081	-2.901488	19.338000
15.618085	-2.976465	19.384000
15.656161	-3.070821	19.549000
15.694582	-3.056180	19.594000
15.732669	-3.047326	19.640000
15.771482	-3.063508	19.686000
15.810098	-3.114411	19.732000
15.847948	-3.188981	19.778000
15.885146	-3.255432	19.823000
15.923015	-3.289217	19.869000
15.961571	-3.286421	19.915000
15.999501	-3.256285	19.960000
16.038722	-3.195957	20.006000
16.077443	-3.118019	20.052000
16.115023	-3.035028	20.098000
16.152858	-2.949245	20.144000
16.189879	-2.856302	20.190000
16.320033	-2.548956	20.236000
16.358716	-2.495197	20.391000
16.397692	-2.514872	20.437000
16.534528	-2.609619	20.483000
16.572617	-2.731371	20.649000
16.612410	-2.739113	20.694000
16.650322	-2.784876	20.740000
16.688637	-2.836523	20.786000
16.726582	-2.865422	20.832000
16.763347	-2.859047	20.878000
16.801671	-2.831006	20.924000
16.839932	-2.800971	20.970000
16.878665	-2.767770	21.015000
16.917643	-2.714155	21.061000
16.956565	-2.644525	21.107000
16.994037	-2.577441	21.153000
17.031558	-2.524877	21.198000
17.069439	-2.463884	21.244000
17.107343	-2.397350	21.290000
17.451570	-2.004242	21.336000
17.490681	-1.938261	21.749000
17.528965	-1.923681	21.795000
17.566966	-1.907483	21.841000
17.604298	-1.873360	21.887000
17.642500	-1.822056	21.932000
17.681067	-1.768895	21.978000
17.719288	-1.724041	22.024000
17.757642	-1.676627	22.070000
17.796599	-1.620861	22.116000
17.835026	-1.576940	22.161000
17.872522	-1.548343	22.207000
17.909938	-1.524015	22.253000
17.947672	-1.487379	22.299000
17.986087	-1.427600	22.345000
18.025405	-1.348129	22.390000
18.155459	-1.263340	22.436000
18.193410	-1.376796	22.592000
18.230609	-1.518065	22.638000
18.545619	-1.651604	22.684000
18.584359	-2.034017	23.061000
18.622442	-2.037817	23.107000
18.660118	-1.974448	23.153000
18.697771	-1.809855	23.198000
18.735760	-1.693283	23.244000
18.773818	-1.704657	23.290000
18.812660	-1.748791	23.336000
18.851669	-1.715784	23.381000
18.890278	-1.672751	23.427000
18.928059	-1.642699	23.473000
19.070288	-1.618089	23.519000
19.107868	-1.652255	23.691000
19.146031	-1.717544	23.737000
19.284966	-1.804136	23.782000
19.322459	-1.827154	23.949000
19.360375	-1.791519	23.994000
19.399482	-1.759118	24.040000
19.438005	-1.733283	24.086000
19.475903	-1.711158	24.132000
19.513752	-1.708880	24.177000
19.551781	-1.723385	24.223000
19.589006	-1.741553	24.268000
19.627064	-1.757303	24.314000
19.665817	-1.761039	24.360000
19.704724	-1.712878	24.406000
19.742959	-1.545037	24.451000
19.781113	-1.291643	24.497000
19.817998	-1.013688	24.543000
19.856561	-0.821865	24.589000
19.986031	-1.141204	24.635000
20.025176	-1.351511	24.791000
20.063928	-1.570363	24.837000
20.201479	-1.792774	24.883000
20.239921	-2.300510	25.049000
20.278413	-2.301898	25.095000
20.317334	-2.273332	25.141000
20.355538	-2.233656	25.186000
20.392914	-2.187252	25.232000
20.430982	-2.134566	25.278000
20.468852	-2.054468	25.324000
20.506821	-1.966858	25.370000
20.545659	-1.894375	25.416000
20.584632	-1.831898	25.461000
20.622993	-1.796997	25.507000
20.660579	-1.797969	25.553000
20.697692	-1.821975	25.599000
20.735842	-1.894840	25.644000
20.773969	-1.982458	25.690000
20.905172	-2.286021	25.736000
20.943232	-2.461783	25.891000
20.980979	-2.659585	25.937000
21.118643	-2.864969	25.983000
21.157078	-3.336173	26.149000
21.195684	-3.399665	26.195000
21.233081	-3.482161	26.240000
21.270851	-3.566225	26.286000
21.309287	-3.654884	26.332000
21.346915	-3.727254	26.378000
21.385893	-3.774786	26.424000
21.424720	-3.802766	26.470000
21.463075	-3.812362	26.516000
21.501669	-3.813465	26.562000
21.539061	-3.801180	26.608000
21.576556	-3.770609	26.653000
21.615120	-3.706424	26.699000
21.653491	-3.606012	26.745000
21.691816	-3.478165	26.791000
22.036129	-2.264999	26.836000
22.074300	-2.036274	27.249000
22.111699	-1.946553	27.295000
22.149761	-1.877589	27.341000
22.187919	-1.820249	27.386000
22.226659	-1.774967	27.432000
22.265278	-1.691166	27.478000
22.303035	-1.543022	27.524000
22.341079	-1.359081	27.570000
22.379028	-1.252206	27.616000
22.416625	-1.216111	27.662000
22.455056	-1.112974	27.707000
22.492724	-0.999111	27.753000
22.531910	-0.962127	27.799000
22.570315	-0.988235	27.844000
22.607824	-1.018756	27.891000
22.736795	-0.787559	27.936000
22.774872	-0.705549	28.092000
22.813493	-0.710192	28.138000
23.128912	-0.850163	28.183000
23.167118	-1.465907	28.561000
23.204360	-1.394144	28.607000
23.241870	-1.332460	28.653000
23.280879	-1.233630	28.699000
23.318822	-1.102866	28.745000
23.357835	-0.987989	28.791000
23.396519	-0.907401	28.836000
23.434879	-0.875352	28.882000
23.472480	-0.865918	28.928000
23.510086	-0.833149	28.973000
23.652784	-0.422401	29.019000
23.691760	-0.421449	29.191000
23.730377	-0.434194	29.237000
23.867874	-0.462760	29.283000
23.905842	-0.607230	29.449000
23.944901	-0.657288	29.495000
23.983902	-0.706442	29.541000
24.022035	-0.724823	29.587000
24.059407	-0.681565	29.632000
24.097425	-0.677977	29.678000
24.135247	-0.694389	29.724000
24.173027	-0.590026	29.770000
24.211782	-0.406996	29.815000
24.250353	-0.298777	29.861000
24.288117	-0.208021	29.907000
24.326023	-0.192976	29.953000
24.363655	-0.273159	29.999000
24.401899	-0.420995	30.044000
24.440067	-0.620418	30.090000
24.570991	-0.861362	30.136000
24.609418	-0.609925	30.292000
24.648070	-0.372105	30.338000
24.785373	-0.254590	30.384000
24.823760	-0.531321	30.549000
24.861558	-0.613867	30.595000
24.899180	-0.695009	30.640000
24.936987	-0.756196	30.686000
24.974795	-0.789796	30.732000
25.013259	-0.797971	30.778000
25.051878	-0.781390	30.823000
25.090037	-0.747713	30.869000
25.128144	-0.718241	30.915000
25.166146	-0.701939	30.961000
25.203564	-0.694055	31.006000
25.241645	-0.684159	31.052000
25.279746	-0.644332	31.098000
25.318641	-0.582564	31.144000
25.357718	-0.520748	31.189000
25.486871	-0.503841	31.235000
25.524821	-0.544122	31.391000
25.562482	-0.569407	31.437000
25.701621	-0.560060	31.483000
25.739833	-0.371728	31.649000
25.777397	-0.319863	31.695000
25.815135	-0.258533	31.741000
25.853226	-0.251881	31.787000
25.892282	-0.330884	31.832000
25.931236	-0.449027	31.878000
25.969691	-0.541134	31.924000
26.007945	-0.582046	31.970000
26.044807	-0.575196	32.016000
26.082775	-0.544227	32.061000
26.120750	-0.515177	32.107000
26.158793	-0.478622	32.153000
26.198026	-0.428545	32.199000
26.236252	-0.368175	32.245000
26.274492	-0.296729	32.290000
26.617547	-0.036245	32.336000
26.655933	0.043929	32.749000
26.694341	0.081009	32.795000
26.732207	0.110599	32.841000
26.770834	0.173671	32.887000
26.809676	0.238124	32.932000
26.847590	0.257562	32.978000
26.885192	0.240163	33.024000
26.922957	0.208351	33.070000
26.960688	0.159670	33.116000
26.999296	0.078992	33.161000
27.038383	0.011442	33.207000
27.076728	-0.065214	33.253000
27.114595	-0.167845	33.299000
27.152809	-0.238117	33.345000
27.189991	-0.303826	33.390000
27.320641	-0.681974	33.436000
27.359638	-0.837636	33.593000
27.397817	-1.008933	33.639000
27.711394	-1.179130	33.684000
27.749057	-1.586125	34.062000
27.787032	-1.512892	34.107000
27.826085	-1.445765	34.153000
27.864789	-1.362805	34.199000
27.902776	-1.294763	34.245000
27.941145	-1.244798	34.291000
27.978834	-1.180031	34.337000
28.016199	-1.111900	34.382000
28.054305	-1.050891	34.428000
28.093041	-1.014460	34.474000
28.237776	-0.965761	34.519000
28.275414	-0.955208	34.691000
28.313178	-0.937735	34.737000
28.451521	-0.932937	34.783000
28.489256	-0.988943	34.948000
28.527520	-0.996039	34.994000
28.565030	-1.000621	35.040000
28.603008	-1.008328	35.086000
28.640943	-1.010696	35.131000
28.679740	-0.994347	35.177000
28.718167	-0.966967	35.223000
28.756548	-0.931874	35.268000
28.794994	-0.900088	35.314000
28.832196	-0.872646	35.360000
28.870008	-0.838497	35.406000
28.908150	-0.795749	35.452000
28.946473	-0.739011	35.497000
28.985037	-0.662164	35.543000
29.023362	-0.578775	35.589000
29.153479	-0.249957	35.635000
29.191130	-0.235492	35.792000
29.229134	-0.289592	35.837000
29.368956	-0.318770	35.883000
29.406818	-0.244970	36.049000
29.444312	-0.292989	36.095000
29.482081	-0.284282	36.141000
29.521031	-0.193067	36.187000
29.558920	-0.102925	36.232000
29.597863	-0.015198	36.278000
29.636313	-0.039037	36.324000
29.674001	-0.130306	36.370000
29.711475	-0.244007	36.416000
29.749850	-0.355137	36.462000
29.787397	-0.429669	36.507000
29.826366	-0.455543	36.553000
29.865365	-0.473047	36.599000
29.903577	-0.488228	36.645000
29.941819	-0.471924	36.691000
30.070114	-0.209131	36.737000
30.108183	-0.097650	36.893000
30.146712	-0.056299	36.938000
30.284211	-0.019199	36.984000
30.321743	-0.033543	37.149000
30.359834	-0.055995	37.195000
30.399405	-0.097701	37.241000
30.437798	-0.150084	37.287000
30.476146	-0.199067	37.333000
30.514438	-0.251143	37.378000
30.551544	-0.294599	37.424000
30.589686	-0.321338	37.470000
30.627548	-0.328646	37.516000
30.665981	-0.304787	37.562000
30.704773	-0.256493	37.608000
30.743549	-0.211993	37.654000
30.781742	-0.192844	37.700000
30.819921	-0.199006	37.746000
30.857120	-0.217559	37.791000
31.200604	-0.412111	37.837000
31.239209	-0.182502	38.249000
31.278124	-0.086558	38.295000
31.316128	-0.020576	38.341000
31.354570	0.044313	38.387000
31.392081	0.126127	38.433000
31.428771	0.220403	38.479000
31.467590	0.313753	38.524000
31.506484	0.405751	38.570000
31.544555	0.495392	38.616000
31.583568	0.573262	38.662000
31.621563	0.629443	38.708000
31.659048	0.670875	38.753000
31.696471	0.701573	38.799000
31.735466	0.722954	38.845000
31.772944	0.737197	38.890000
31.904431	0.895256	38.936000
31.942941	0.949667	39.093000
31.981172	0.995718	39.138000
32.294134	1.026668	39.184000
32.333220	0.723156	39.562000
32.371875	0.649067	39.607000
32.410473	0.569225	39.653000
32.448633	0.477414	39.699000
32.485687	0.399961	39.745000
32.523485	0.363339	39.790000
32.561807	0.359938	39.836000
32.599117	0.369066	39.882000
32.638372	0.379472	39.928000
32.676955	0.378898	39.974000
32.819775	0.584442	40.019000
32.857316	0.700131	40.192000
32.895706	0.861207	40.238000
33.036198	0.947167	40.283000
33.072883	0.867321	40.450000
33.110959	0.847255	40.495000
33.148819	0.823094	40.541000
33.186579	0.822801	40.587000
33.225092	0.850264	40.633000
33.264478	0.836697	40.679000
33.302280	0.836385	40.724000
33.340233	0.840502	40.770000
33.378066	0.827791	40.816000
33.415508	0.817474	40.862000
33.453940	0.810086	40.907000
33.492650	0.828295	40.953000
33.531174	0.878518	40.999000
33.569665	0.954435	41.044000
33.607521	1.095788	41.091000
33.736976	1.470386	41.136000
33.775186	1.527258	41.292000
33.813123	1.553859	41.338000
33.950902	1.567152	41.384000
33.988440	1.858975	41.550000
34.026911	1.888233	41.595000
34.065666	1.888658	41.641000
34.104418	1.857334	41.687000
34.142455	1.709956	41.733000
34.180461	1.560733	41.778000
34.218713	1.413960	41.824000
34.256327	1.265262	41.870000
34.294165	1.171342	41.916000
34.332655	1.081157	41.961000
34.371533	1.041510	42.007000
34.409574	1.089207	42.053000
34.447446	1.138172	42.099000
34.484434	1.192106	42.145000
34.522644	1.283250	42.190000
34.652848	1.252203	42.236000
34.691976	1.229207	42.392000
34.729993	1.224358	42.437000
34.867762	1.221888	42.483000
34.906697	1.135648	42.650000
